SATU
 50
         z (m)       p (kPa)         T (K)   Tparcel (K)      qt (g/g)      qs (g/g)
        0.0000      100.0000      296.9783      296.9783        0.0071        0.0189
       43.5276       99.5000      296.5533      296.5533        0.0071        0.0185
       87.2117       99.0000      296.1267      296.1267        0.0071        0.0181
      131.0537       98.5000      295.6986      295.6986        0.0071        0.0177
      175.0550       98.0000      295.2690      295.2690        0.0071        0.0173
      219.2169       97.5000      294.8378      294.8378        0.0071        0.0170
      263.5409       97.0000      294.4050      294.4050        0.0071        0.0166
      308.0283       96.5000      293.9706      293.9706        0.0071        0.0162
      352.6807       96.0000      293.5346      293.5346        0.0071        0.0159
      397.4996       95.5000      293.0969      293.0969        0.0071        0.0155
      442.4863       95.0000      292.6577      292.6577        0.0071        0.0152
      487.6425       94.5000      292.2168      292.2168        0.0071        0.0148
      532.9697       94.0000      291.7742      291.7742        0.0071        0.0145
      578.4695       93.5000      291.3299      291.3299        0.0071        0.0142
      624.1433       93.0000      290.8839      290.8839        0.0071        0.0138
      669.9929       92.5000      290.4362      290.4362        0.0071        0.0135
      716.0199       92.0000      289.9868      289.9868        0.0071        0.0132
      762.2259       91.5000      289.5356      289.5356        0.0071        0.0129
      808.6125       91.0000      289.0827      289.0827        0.0071        0.0126
      855.1816       90.5000      288.6280      288.6280        0.0071        0.0123
      901.9349       90.0000      288.1714      288.1714        0.0071        0.0120
      948.8740       89.5000      287.7131      287.7131        0.0071        0.0117
      996.0008       89.0000      287.2529      287.2529        0.0071        0.0114
     1043.3171       88.5000      286.7909      286.7909        0.0071        0.0112
     1090.8248       88.0000      286.3270      286.3270        0.0071        0.0109
     1138.5256       87.5000      285.8613      285.8613        0.0071        0.0106
     1186.4216       87.0000      285.3936      285.3936        0.0071        0.0103
     1234.5145       86.5000      284.9240      284.9240        0.0071        0.0101
     1282.8064       86.0000      284.4525      284.4525        0.0071        0.0098
     1331.2993       85.5000      283.9790      283.9790        0.0071        0.0096
     1379.9952       85.0000      283.5035      283.5035        0.0071        0.0093
     1428.8962       84.5000      283.0260      283.0260        0.0071        0.0091
     1478.0042       84.0000      282.5465      282.5465        0.0071        0.0088
     1527.3215       83.5000      282.0649      282.0649        0.0071        0.0086
     1576.8501       83.0000      281.5813      281.5813        0.0071        0.0084
     1626.5924       82.5000      281.0956      281.0956        0.0071        0.0082
     1676.5504       82.0000      280.6078      280.6078        0.0071        0.0079
     1726.7265       81.5000      280.1178      280.1178        0.0071        0.0077
     1777.1230       81.0000      279.6258      279.6258        0.0071        0.0075
     1827.7422       80.5000      279.1315      279.1315        0.0071        0.0073
     1878.5864       80.0000      278.6350      278.6350        0.0071        0.0071
     1929.6581       79.5000      278.1363      278.1363        0.0069        0.0069
     1980.9598       79.0000      277.6354      277.3564        0.0067        0.0067
     2032.4940       78.5000      277.1322      276.5678        0.0065        0.0065
     2084.2631       78.0000      276.6267      275.7706        0.0063        0.0063
     2136.2698       77.5000      276.1189      274.9644        0.0061        0.0061
     2188.5167       77.0000      275.6087      274.1491        0.0060        0.0060
     2241.0065       76.5000      275.0962      273.3247        0.0058        0.0058
     2293.7420       76.0000      274.5813      272.4908        0.0056        0.0056
     2346.7258       75.5000      274.0639      271.6474        0.0054        0.0054
     2399.9609       75.0000      273.5441      270.7943        0.0053        0.0053
LCL at  1929.7m reached after   14.00hou
