VERT
 28
 4
         z (m)     theta (K)        wtheta
        0.0000      292.5268   0.44399E-01
      979.5992      292.5268  -0.88798E-02
      979.5992      293.0916   0.10000E-03
    3000.00000     302.58738   0.00000E+00
        0.0000      292.6006   0.66935E-01
      996.7227      292.6006  -0.13387E-01
      996.7227      293.2433   0.10000E-03
    3000.00000     302.65865   0.00000E+00
        0.0000      292.7260   0.92228E-01
     1025.4716      292.7260  -0.18446E-01
     1025.4716      293.4527   0.10000E-03
    3000.00000     302.73284   0.00000E+00
        0.0000      292.9036   0.11910E+00
     1064.7579      292.9036  -0.23819E-01
     1064.7579      293.7158   0.10000E-03
    3000.00000     302.81136   0.00000E+00
        0.0000      293.1303   0.14628E+00
     1113.2954      293.1303  -0.29257E-01
     1113.2954      294.0281   0.10000E-03
    3000.00000     302.89547   0.00000E+00
        0.0000      293.3996   0.17252E+00
     1169.4783      293.3996  -0.34504E-01
     1169.4783      294.3829   0.10000E-03
    3000.00000     302.98624   0.00000E+00
        0.0000      293.7033   0.19658E+00
     1231.3589      293.7033  -0.39315E-01
     1231.3589      294.7720   0.10000E-03
    3000.00000     303.08452   0.00000E+00
        0.0000      294.0319   0.21733E+00
     1296.7462      294.0319  -0.43465E-01
     1296.7462      295.1857   0.10000E-03
    3000.00000     303.19090   0.00000E+00
        0.0000      294.3759   0.23380E+00
     1363.3647      294.3759  -0.46761E-01
     1363.3647      295.6136   0.10000E-03
    3000.00000     303.30568   0.00000E+00
        0.0000      294.7258   0.24524E+00
     1429.0071      294.7258  -0.49047E-01
     1429.0071      296.0453   0.10000E-03
    3000.00000     303.42887   0.00000E+00
        0.0000      295.0732   0.25109E+00
     1491.6441      295.0732  -0.50218E-01
     1491.6441      296.4711   0.10000E-03
    3000.00000     303.56023   0.00000E+00
        0.0000      295.4103   0.25109E+00
     1549.4887      295.4103  -0.50218E-01
     1549.4887      296.8819   0.10000E-03
    3000.00000     303.69925   0.00000E+00
        0.0000      295.7303   0.24524E+00
     1601.0272      295.7303  -0.49047E-01
     1601.0272      297.2701   0.10000E-03
    3000.00000     303.84522   0.00000E+00
        0.0000      296.0273   0.23380E+00
     1645.0283      296.0273  -0.46761E-01
     1645.0283      297.6290   0.10000E-03
    3000.00000     303.99726   0.00000E+00
        0.0000      296.2966   0.21733E+00
     1680.5453      296.2966  -0.43465E-01
     1680.5453      297.9530   0.10000E-03
    3000.00000     304.15436   0.00000E+00
        0.0000      296.5344   0.19658E+00
     1706.9126      296.5344  -0.39315E-01
     1706.9126      298.2380   0.10000E-03
    3000.00000     304.31540   0.00000E+00
        0.0000      296.7376   0.17252E+00
     1723.7447      296.7376  -0.34504E-01
     1723.7447      298.4809   0.10000E-03
    3000.00000     304.47917   0.00000E+00
        0.0000      296.9046   0.14628E+00
     1730.9347      296.9046  -0.29257E-01
     1730.9347      298.6800   0.10000E-03
    3000.00000     304.64447   0.00000E+00
        0.0000      297.0346   0.11910E+00
     1728.6554      297.0346  -0.23819E-01
     1728.6554      298.8349   0.10000E-03
    3000.00000     304.81008   0.00000E+00
        0.0000      297.1278   0.92228E-01
     1717.3603      297.1278  -0.18446E-01
     1717.3603      298.9465   0.10000E-03
    3000.00000     304.97483   0.00000E+00
        0.0000      297.1858   0.66935E-01
     1697.7838      297.1858  -0.13387E-01
     1697.7838      299.0173   0.10000E-03
    3000.00000     305.13760   0.00000E+00
        0.0000      297.2112   0.44399E-01
     1670.9370      297.2112  -0.88798E-02
     1670.9370      299.0509   0.10000E-03
    3000.00000     305.29742   0.00000E+00
        0.0000      297.2081   0.25675E-01
     1638.0956      297.2081  -0.51349E-02
     1638.0956      299.0526   0.10000E-03
    3000.00000     305.45343   0.00000E+00
        0.0000      297.1816   0.11638E-01
     1600.7736      297.1816  -0.23275E-02
     1600.7736      299.0287   0.10000E-03
    3000.00000     305.60498   0.00000E+00
        0.0000      297.1384   0.29438E-02
     1560.6787      297.1384  -0.58876E-03
     1560.6787      298.9869   0.10000E-03
    3000.00000     305.75159   0.00000E+00
        0.0000      297.0862   0.00000E+00
     1519.6469      297.0862  -0.00000E+00
     1519.6469      298.9355   0.10000E-03
    3000.00000     305.89304   0.00000E+00
        0.0000      297.0323   0.00000E+00
     1479.2563      297.0323  -0.00000E+00
     1479.2563      298.8819   0.10000E-03
    3000.00000     306.02931   0.00000E+00
        0.0000      296.9783   0.00000E+00
     1439.8635      296.9783  -0.00000E+00
     1439.8635      298.8280   0.10000E-03
    3000.00000     306.16052   0.00000E+00
Time int. between profiles 1800s
