VERT
 24
 4
         z (m)     theta (K)        wtheta
        0.0000      283.6776   0.42797E-01
      104.2183      283.6776  -0.85595E-02
      104.2183      285.3128   0.10000E-03
    2000.00000     291.00000   0.00000E+00
        0.0000      284.8497   0.74772E-01
      131.0184      284.8497  -0.14954E-01
      131.0184      285.3932   0.10000E-03
    2000.00000     291.00000   0.00000E+00
        0.0000      285.8359   0.94531E-01
      363.5447      285.8359  -0.18906E-01
      363.5447      286.0907   0.10000E-03
    2000.00000     291.00000   0.00000E+00
        0.0000      286.3981   0.12370E+00
      591.8236      286.3981  -0.24739E-01
      591.8236      286.7756   0.10000E-03
    2000.00000     291.00000   0.00000E+00
        0.0000      286.8808   0.15042E+00
      790.3894      286.8808  -0.30083E-01
      790.3894      287.3713   0.10000E-03
    2000.00000     291.00000   0.00000E+00
        0.0000      287.3237   0.17216E+00
      973.4110      287.3237  -0.34433E-01
      973.4110      287.9203   0.10000E-03
    2000.00000     291.00000   0.00000E+00
        0.0000      287.7349   0.18803E+00
     1143.7382      287.7349  -0.37606E-01
     1143.7382      288.4313   0.10000E-03
    2000.00000     291.00000   0.00000E+00
        0.0000      288.1155   0.19750E+00
     1301.7860      288.1155  -0.39499E-01
     1301.7860      288.9055   0.10000E-03
    2000.00000     291.00000   0.00000E+00
        0.0000      288.4649   0.20030E+00
     1447.1986      288.4649  -0.40060E-01
     1447.1986      289.3417   0.10000E-03
    2000.00000     291.00000   0.00000E+00
        0.0000      288.7816   0.19643E+00
     1579.3535      288.7816  -0.39285E-01
     1579.3535      289.7382   0.10000E-03
    2000.00000     291.00000   0.00000E+00
        0.0000      289.0639   0.18612E+00
     1697.5706      289.0639  -0.37224E-01
     1697.5706      290.0928   0.10000E-03
    2000.00000     291.00000   0.00000E+00
        0.0000      289.3104   0.16989E+00
     1801.2207      289.3104  -0.33977E-01
     1801.2207      290.4038   0.10000E-03
    2000.00000     291.00000   0.00000E+00
        0.0000      289.5199   0.14849E+00
     1889.7937      289.5199  -0.29698E-01
     1889.7937      290.6695   0.10000E-03
    2000.00000     291.00000   0.00000E+00
        0.0000      289.6915   0.12291E+00
     1962.9477      289.6915  -0.24582E-01
     1962.9477      290.8889   0.10000E-03
    2000.00000     291.00000   0.00000E+00
        0.0000      289.8250   0.94351E-01
     2020.5511      289.8250  -0.18870E-01
     2020.5511      291.0618   0.10000E-03
    2000.00000     291.00000   0.00000E+00
        0.0000      289.9208   0.64208E-01
     2062.7293      289.9208  -0.12842E-01
     2062.7293      291.1883   0.10000E-03
    2000.00000     291.00000   0.00000E+00
        0.0000      289.9801   0.34179E-01
     2089.9448      289.9801  -0.68358E-02
     2089.9448      291.2699   0.10000E-03
    2000.00000     291.00000   0.00000E+00
        0.0000      290.0056   0.69017E-02
     2103.2193      290.0056  -0.13803E-02
     2103.2193      291.3098   0.10000E-03
    2000.00000     291.00000   0.00000E+00
        0.0000      290.0040   0.29109E-02
     2106.0092      290.0040  -0.58217E-03
     2106.0092      291.3181   0.10000E-03
    2000.00000     291.00000   0.00000E+00
        0.0000      289.9889  -0.24663E-02
     2106.5913      289.9889   0.49325E-03
     2106.5913      291.3199   0.10000E-03
    2000.00000     291.00000   0.00000E+00
        0.0000      289.9843  -0.84616E-02
     2106.5913      289.9843   0.16923E-02
     2106.5913      291.3199   0.10000E-03
    2000.00000     291.00000   0.00000E+00
        0.0000      289.9743  -0.14151E-01
     2106.5913      289.9743   0.28302E-02
     2106.5913      291.3199   0.10000E-03
    2000.00000     291.00000   0.00000E+00
        0.0000      289.9610  -0.16891E-01
     2106.5913      289.9610   0.33781E-02
     2106.5913      291.3199   0.10000E-03
    2000.00000     291.00000   0.00000E+00
        0.0000      289.9456  -0.19213E-01
     2106.5913      289.9456   0.38426E-02
     2106.5913      291.3199   0.10000E-03
    2000.00000     291.00000   0.00000E+00
Time int. between profiles 1800s
