VERT
 24
 4
         z (m)     theta (K)        wtheta
        0.0000      283.6782   0.42795E-01
      104.2232      283.6782  -0.85589E-02
      104.2232      285.3128   0.10000E-03
    2000.00000     291.00000   0.00000E+00
        0.0000      284.8513   0.74783E-01
      131.0398      284.8513  -0.14957E-01
      131.0398      285.3932   0.10000E-03
    2000.00000     291.00000   0.00000E+00
        0.0000      285.8381   0.94514E-01
      364.5258      285.8381  -0.18903E-01
      364.5258      286.0937   0.10000E-03
    2000.00000     291.00000   0.00000E+00
        0.0000      286.3998   0.12369E+00
      592.5894      286.3998  -0.24738E-01
      592.5894      286.7779   0.10000E-03
    2000.00000     291.00000   0.00000E+00
        0.0000      286.8822   0.15041E+00
      791.0503      286.8822  -0.30082E-01
      791.0503      287.3733   0.10000E-03
    2000.00000     291.00000   0.00000E+00
        0.0000      287.3251   0.17216E+00
      974.0088      287.3251  -0.34432E-01
      974.0088      287.9221   0.10000E-03
    2000.00000     291.00000   0.00000E+00
        0.0000      287.7361   0.18803E+00
     1144.2902      287.7361  -0.37606E-01
     1144.2902      288.4330   0.10000E-03
    2000.00000     291.00000   0.00000E+00
        0.0000      288.1167   0.19749E+00
     1302.3004      288.1167  -0.39499E-01
     1302.3004      288.9070   0.10000E-03
    2000.00000     291.00000   0.00000E+00
        0.0000      288.4660   0.20030E+00
     1447.6798      288.4660  -0.40060E-01
     1447.6798      289.3431   0.10000E-03
    2000.00000     291.00000   0.00000E+00
        0.0000      288.7826   0.19642E+00
     1579.8039      288.7826  -0.39285E-01
     1579.8039      289.7395   0.10000E-03
    2000.00000     291.00000   0.00000E+00
        0.0000      289.0648   0.18612E+00
     1697.9917      289.0648  -0.37223E-01
     1697.9917      290.0941   0.10000E-03
    2000.00000     291.00000   0.00000E+00
        0.0000      289.3113   0.16988E+00
     1801.6135      289.3113  -0.33977E-01
     1801.6135      290.4049   0.10000E-03
    2000.00000     291.00000   0.00000E+00
        0.0000      289.5207   0.14848E+00
     1890.1591      289.5207  -0.29697E-01
     1890.1591      290.6706   0.10000E-03
    2000.00000     291.00000   0.00000E+00
        0.0000      289.6922   0.12291E+00
     1963.2867      289.6922  -0.24581E-01
     1963.2867      290.8900   0.10000E-03
    2000.00000     291.00000   0.00000E+00
        0.0000      289.8257   0.94344E-01
     2020.8647      289.8257  -0.18869E-01
     2020.8647      291.0627   0.10000E-03
    2000.00000     291.00000   0.00000E+00
        0.0000      289.9215   0.64201E-01
     2063.0189      289.9215  -0.12840E-01
     2063.0189      291.1892   0.10000E-03
    2000.00000     291.00000   0.00000E+00
        0.0000      289.9807   0.34170E-01
     2090.2120      289.9807  -0.68340E-02
     2090.2120      291.2707   0.10000E-03
    2000.00000     291.00000   0.00000E+00
        0.0000      290.0061   0.68897E-02
     2103.4662      290.0061  -0.13779E-02
     2103.4662      291.3105   0.10000E-03
    2000.00000     291.00000   0.00000E+00
        0.0000      290.0047   0.28730E-02
     2106.1331      290.0047  -0.57460E-03
     2106.1331      291.3185   0.10000E-03
    2000.00000     291.00000   0.00000E+00
        0.0000      289.9895  -0.24899E-02
     2106.7060      289.9895   0.49798E-03
     2106.7060      291.3202   0.10000E-03
    2000.00000     291.00000   0.00000E+00
        0.0000      289.9849  -0.84883E-02
     2106.7060      289.9849   0.16977E-02
     2106.7060      291.3202   0.10000E-03
    2000.00000     291.00000   0.00000E+00
        0.0000      289.9749  -0.14177E-01
     2106.7060      289.9749   0.28353E-02
     2106.7060      291.3202   0.10000E-03
    2000.00000     291.00000   0.00000E+00
        0.0000      289.9615  -0.16914E-01
     2106.7060      289.9615   0.33828E-02
     2106.7060      291.3202   0.10000E-03
    2000.00000     291.00000   0.00000E+00
        0.0000      289.9461  -0.19234E-01
     2106.7060      289.9461   0.38469E-02
     2106.7060      291.3202   0.10000E-03
    2000.00000     291.00000   0.00000E+00
Time int. between profiles 1800s
